# gas name
argon Ar
# reference temperature (in K)
293.15
# reference pressure (absolute) (in Pa)
1.0e5
# minimum temperature (in K)
100.0
# maximum temperature (in K)
700.0
# density at ref. pressure and ref. temperature (in kg/m3)
1.6400748
#	T(K)		cp(J/kg/K)		mu(kg/m/s)		lam(W/m/K)
1.0000E+02		5.4702E+02		7.9849E-06		6.3139E-03
1.1000E+02		5.3948E+02		8.7547E-06		6.8812E-03
1.2000E+02		5.3472E+02		9.5454E-06		7.4892E-03
1.3000E+02		5.3153E+02		1.0350E-05		8.1170E-03
1.4000E+02		5.2928E+02		1.1162E-05		8.7520E-03
1.5000E+02		5.2764E+02		1.1975E-05		9.3865E-03
1.6000E+02		5.2641E+02		1.2782E-05		1.0016E-02
1.7000E+02		5.2546E+02		1.3582E-05		1.0637E-02
1.8000E+02		5.2472E+02		1.4370E-05		1.1250E-02
1.9000E+02		5.2412E+02		1.5147E-05		1.1854E-02
2.0000E+02		5.2364E+02		1.5911E-05		1.2447E-02
2.2000E+02		5.2291E+02		1.7397E-05		1.3604E-02
2.4000E+02		5.2240E+02		1.8832E-05		1.4722E-02
2.6000E+02		5.2202E+02		2.0216E-05		1.5804E-02
2.8000E+02		5.2174E+02		2.1555E-05		1.6851E-02
3.0000E+02		5.2152E+02		2.2853E-05		1.7867E-02
3.5000E+02		5.2115E+02		2.5940E-05		2.0286E-02
4.0000E+02		5.2093E+02		2.8839E-05		2.2557E-02
4.5000E+02		5.2079E+02		3.1581E-05		2.4704E-02
5.0000E+02		5.2069E+02		3.4190E-05		2.6747E-02
5.5000E+02		5.2062E+02		3.6680E-05		2.8699E-02
6.0000E+02		5.2057E+02		3.9066E-05		3.0573E-02
6.5000E+02		5.2053E+02		4.1361E-05		3.2378E-02
7.0000E+02		5.2050E+02		4.3579E-05		3.4122E-02
