# gas name					
water vapour 					
# reference temperature (in K)					
300					
# reference pressure (absolute) (in Pa)					
1.00E+05					
# minimum temperature (in K)					
280					
# maximum temperature (in K)					
1073					
# density at ref. pressure and ref. temperature (in kg/m3)					
0.73821					
#	T(K)	cp(J/kg/K)		mu(kg/m/s)	lam(W/m/K)
	280	1862.438507		8.20239E-06	0.016540838
	290	1865.00635		8.62216E-06	0.017294209
	300	1867.754734		9.0416E-06	0.01805749
	310	1870.679176		9.46072E-06	0.018830681		
	320	1873.775238		9.87951E-06	0.019613782		
	330	1877.038534		1.0298E-05	0.020406794		
	340	1880.464726		1.07161E-05	0.021209716		
	350	1884.049526		1.1134E-05	0.022022548		
	360	1887.788695		1.15514E-05	0.02284529		
	370	1891.678043		1.19686E-05	0.023677942		
	380	1895.713428		1.23855E-05	0.024520504		
	390	1899.890761		1.2802E-05	0.025372977		
	400	1904.205997		1.32182E-05	0.02623536		
	410	1908.655145		1.36341E-05	0.027107653		
	420	1913.234259		1.40496E-05	0.027989856		
	430	1917.939446		1.44649E-05	0.02888197		
	440	1922.76686		1.48798E-05	0.029783994		
	450	1927.712704		1.52944E-05	0.030695928		
	460	1932.773231		1.57086E-05	0.031617772		
	470	1937.944744		1.61225E-05	0.032549526								
	480	1943.223593		1.65362E-05	0.03349119								
	490	1948.60618		1.69494E-05	0.034442765								
	500	1954.088954		1.73624E-05	0.03540425								
	510	1959.668413		1.7775E-05	0.036375645								
	520	1965.341106		1.81874E-05	0.03735695								
	530	1971.10363		1.85993E-05	0.038348166								
	540	1976.952632		1.9011E-05	0.039349292								
	550	1982.884808		1.94224E-05	0.040360328								
	560	1988.896901		1.98334E-05	0.041381274								
	570	1994.985707		2.02441E-05	0.04241213								
	580	2001.148069		2.06544E-05	0.043452896								
	590	2007.380879		2.10645E-05	0.044503573								
	600	2013.681079		2.14742E-05	0.04556416								
	610	2020.04566		2.18836E-05	0.046634657								
	620	2026.471662		2.22927E-05	0.047715064								
	630	2032.956175		2.27014E-05	0.048805382								
	640	2039.496336		2.31098E-05	0.04990561								
	650	2046.089334		2.3518E-05	0.051015748								
	660	2052.732406		2.39257E-05	0.052135796								
	670	2059.422838		2.43332E-05	0.053265754								
	680	2066.157965		2.47403E-05	0.054405622								
	690	2072.935172		2.51471E-05	0.055555401								
	700	2079.751892		2.55536E-05	0.05671509								
	710	2086.605609		2.59598E-05	0.057884689								
	720	2093.493855		2.63656E-05	0.059064198								
	730	2100.414211		2.67711E-05	0.060253618								
	740	2107.364307		2.71763E-05	0.061452948								
	750	2114.341825		2.75812E-05	0.062662188								
	760	2121.344491		2.79857E-05	0.063881338								
	770	2128.370086		2.83899E-05	0.065110398								
	780	2135.416435		2.87938E-05	0.066349368								
	790	2142.481416		2.91974E-05	0.067598249
	800	2149.562955		2.96006E-05	0.06885704
	810	2156.659027		3.00035E-05	0.070125741
	820	2163.767655		3.04061E-05	0.071404352
	830	2170.886914		3.08084E-05	0.072692874
	840	2178.014925		3.12103E-05	0.073991306
	850	2185.149862		3.1612E-05	0.075299648
	860	2192.289944		3.20132E-05	0.0766179
	870	2199.433442		3.24142E-05	0.077946062
	880	2206.578676		3.28149E-05	0.079284134
	890	2213.724014		3.32152E-05	0.080632117
	900	2220.867873		3.36152E-05	0.08199001
	910	2228.008722		3.40149E-05	0.083357813
	920	2235.145077		3.44142E-05	0.084735526
	930	2242.275502		3.48133E-05	0.08612315
	940	2249.398613		3.5212E-05	0.087520684
	950	2256.513073		3.56104E-05	0.088928128
	960	2263.617596		3.60084E-05	0.090345482
	970	2270.710943		3.64061E-05	0.091772746
	980	2277.791927		3.68036E-05	0.09320992
	990	2284.859408		3.72006E-05	0.094657005
	1000	2291.912295		3.75974E-05	0.096114
	1010	2298.949549		3.79938E-05	0.097580905
	1020	2305.970177		3.839E-05	0.09905772
	1030	2312.973237		3.87857E-05	0.100544446
	1040	2319.957835		3.91812E-05	0.102041082
	1050	2326.923128		3.95764E-05	0.103547628
	1060	2333.868321		3.99712E-05	0.105064084
	1070	2340.792668		4.03657E-05	0.10659045
	1073	2342.865801		4.04839E-05	0.107050292
