# gas name
xenon Xe
# reference temperature (in K)
293.15
# reference pressure (absolute) (in Pa)
1.0e5
# minimum temperature (in K)
170.0
# maximum temperature (in K)
800.0
# density at ref. pressure and ref. temperature (in kg/m3)
5.4167095
#	T(K)		cp(J/kg/K)		mu(kg/m/s)		lam(W/m/K)
1.7000E+02		1.7220E+02		1.3983E-05		3.2835E-03
1.8000E+02		1.6897E+02		1.4666E-05		3.4639E-03
1.9000E+02		1.6678E+02		1.5356E-05		3.6436E-03
2.0000E+02		1.6520E+02		1.6051E-05		3.8225E-03
2.2000E+02		1.6311E+02		1.7454E-05		4.1779E-03
2.4000E+02		1.6182E+02		1.8866E-05		4.5300E-03
2.6000E+02		1.6098E+02		2.0282E-05		4.8790E-03
2.8000E+02		1.6040E+02		2.1700E-05		5.2245E-03
3.0000E+02		1.5999E+02		2.3114E-05		5.5664E-03
3.5000E+02		1.5938E+02		2.6621E-05		6.4050E-03
4.0000E+02		1.5905E+02		3.0061E-05		7.2216E-03
4.5000E+02		1.5885E+02		3.3417E-05		8.0158E-03
5.0000E+02		1.5873E+02		3.6679E-05		8.7865E-03
5.5000E+02		1.5864E+02		3.9846E-05		9.5340E-03
6.0000E+02		1.5858E+02		4.2919E-05		1.0259E-02
6.5000E+02		1.5853E+02		4.5901E-05		1.0962E-02
7.0000E+02		1.5850E+02		4.8797E-05		1.1644E-02
7.5000E+02		1.5847E+02		5.1611E-05		1.2307E-02
8.0000E+02		1.5845E+02		5.4350E-05		1.2951E-02
